#   Si
#    2
# Energy [cm^-1], TOTAL-DOS
   0.000000e+00   3.022715e-05
   1.000000e+00   2.962072e-05
   2.000000e+00   2.787178e-05
   3.000000e+00   2.519171e-05
   4.000000e+00   2.189115e-05
   5.000000e+00   1.833182e-05
   6.000000e+00   1.488048e-05
   7.000000e+00   1.187772e-05
   8.000000e+00   9.629384e-06
   9.000000e+00   8.420675e-06
   1.000000e+01   8.545668e-06
   1.100000e+01   1.033907e-05
   1.200000e+01   1.419418e-05
   1.300000e+01   2.055227e-05
   1.400000e+01   2.985387e-05
   1.500000e+01   4.245271e-05
   1.600000e+01   5.850542e-05
   1.700000e+01   7.786305e-05
   1.800000e+01   9.999783e-05
   1.900000e+01   1.239969e-04
   2.000000e+01   1.486413e-04
   2.100000e+01   1.725643e-04
   2.200000e+01   1.944587e-04
   2.300000e+01   2.132824e-04
   2.400000e+01   2.284094e-04
   2.500000e+01   2.396890e-04
   2.600000e+01   2.474045e-04
   2.700000e+01   2.521563e-04
   2.800000e+01   2.547168e-04
   2.900000e+01   2.559119e-04
   3.000000e+01   2.565700e-04
   3.100000e+01   2.575562e-04
   3.200000e+01   2.598770e-04
   3.300000e+01   2.648144e-04
   3.400000e+01   2.740289e-04
   3.500000e+01   2.895651e-04
   3.600000e+01   3.137033e-04
   3.700000e+01   3.486315e-04
   3.800000e+01   3.959612e-04
   3.900000e+01   4.561683e-04
   4.000000e+01   5.280945e-04
   4.100000e+01   6.086724e-04
   4.200000e+01   6.930131e-04
   4.300000e+01   7.749249e-04
   4.400000e+01   8.478171e-04
   4.500000e+01   9.058228e-04
   4.600000e+01   9.448896e-04
   4.700000e+01   9.635708e-04
   4.800000e+01   9.633177e-04
   4.900000e+01   9.482047e-04
   5.000000e+01   9.241775e-04
   5.100000e+01   8.980321e-04
   5.200000e+01   8.763875e-04
   5.300000e+01   8.648747e-04
   5.400000e+01   8.676628e-04
   5.500000e+01   8.873165e-04
   5.600000e+01   9.248804e-04
   5.700000e+01   9.800483e-04
   5.800000e+01   1.051307e-03
   5.900000e+01   1.136027e-03
   6.000000e+01   1.230556e-03
   6.100000e+01   1.330423e-03
   6.200000e+01   1.430741e-03
   6.300000e+01   1.526806e-03
   6.400000e+01   1.614780e-03
   6.500000e+01   1.692264e-03
   6.600000e+01   1.758543e-03
   6.700000e+01   1.814398e-03
   6.800000e+01   1.861555e-03
   6.900000e+01   1.901984e-03
   7.000000e+01   1.937384e-03
   7.100000e+01   1.969113e-03
   7.200000e+01   1.998628e-03
   7.300000e+01   2.028280e-03
   7.400000e+01   2.062072e-03
   7.500000e+01   2.105947e-03
   7.600000e+01   2.167311e-03
   7.700000e+01   2.253757e-03
   7.800000e+01   2.371249e-03
   7.900000e+01   2.522280e-03
   8.000000e+01   2.704555e-03
   8.100000e+01   2.910658e-03
   8.200000e+01   3.128892e-03
   8.300000e+01   3.345191e-03
   8.400000e+01   3.545724e-03
   8.500000e+01   3.719641e-03
   8.600000e+01   3.861343e-03
   8.700000e+01   3.971773e-03
   8.800000e+01   4.058416e-03
   8.900000e+01   4.133984e-03
   9.000000e+01   4.214107e-03
   9.100000e+01   4.314581e-03
   9.200000e+01   4.448878e-03
   9.300000e+01   4.626534e-03
   9.400000e+01   4.852829e-03
   9.500000e+01   5.129765e-03
   9.600000e+01   5.457959e-03
   9.700000e+01   5.838750e-03
   9.800000e+01   6.275705e-03
   9.900000e+01   6.774850e-03
   1.000000e+02   7.343347e-03
   1.010000e+02   7.986814e-03
   1.020000e+02   8.706000e-03
   1.030000e+02   9.493789e-03
   1.040000e+02   1.033350e-02
   1.050000e+02   1.119914e-02
   1.060000e+02   1.205778e-02
   1.070000e+02   1.287359e-02
   1.080000e+02   1.361286e-02
   1.090000e+02   1.424885e-02
   1.100000e+02   1.476570e-02
   1.110000e+02   1.516057e-02
   1.120000e+02   1.544376e-02
   1.130000e+02   1.563686e-02
   1.140000e+02   1.576922e-02
   1.150000e+02   1.587363e-02
   1.160000e+02   1.598192e-02
   1.170000e+02   1.612131e-02
   1.180000e+02   1.631214e-02
   1.190000e+02   1.656692e-02
   1.200000e+02   1.689056e-02
   1.210000e+02   1.728118e-02
   1.220000e+02   1.773097e-02
   1.230000e+02   1.822697e-02
   1.240000e+02   1.875186e-02
   1.250000e+02   1.928537e-02
   1.260000e+02   1.980672e-02
   1.270000e+02   2.029837e-02
   1.280000e+02   2.075048e-02
   1.290000e+02   2.116524e-02
   1.300000e+02   2.155955e-02
   1.310000e+02   2.196469e-02
   1.320000e+02   2.242237e-02
   1.330000e+02   2.297711e-02
   1.340000e+02   2.366612e-02
   1.350000e+02   2.450864e-02
   1.360000e+02   2.549690e-02
   1.370000e+02   2.659107e-02
   1.380000e+02   2.771962e-02
   1.390000e+02   2.878616e-02
   1.400000e+02   2.968194e-02
   1.410000e+02   3.030279e-02
   1.420000e+02   3.056721e-02
   1.430000e+02   3.043251e-02
   1.440000e+02   2.990490e-02
   1.450000e+02   2.904118e-02
   1.460000e+02   2.794045e-02
   1.470000e+02   2.672725e-02
   1.480000e+02   2.552917e-02
   1.490000e+02   2.445373e-02
   1.500000e+02   2.356970e-02
   1.510000e+02   2.289694e-02
   1.520000e+02   2.240705e-02
   1.530000e+02   2.203442e-02
   1.540000e+02   2.169475e-02
   1.550000e+02   2.130661e-02
   1.560000e+02   2.081101e-02
   1.570000e+02   2.018451e-02
   1.580000e+02   1.944331e-02
   1.590000e+02   1.863812e-02
   1.600000e+02   1.784148e-02
   1.610000e+02   1.713127e-02
   1.620000e+02   1.657410e-02
   1.630000e+02   1.621252e-02
   1.640000e+02   1.605810e-02
   1.650000e+02   1.609106e-02
   1.660000e+02   1.626577e-02
   1.670000e+02   1.651996e-02
   1.680000e+02   1.678553e-02
   1.690000e+02   1.699890e-02
   1.700000e+02   1.710928e-02
   1.710000e+02   1.708418e-02
   1.720000e+02   1.691179e-02
   1.730000e+02   1.660044e-02
   1.740000e+02   1.617564e-02
   1.750000e+02   1.567538e-02
   1.760000e+02   1.514448e-02
   1.770000e+02   1.462889e-02
   1.780000e+02   1.417065e-02
   1.790000e+02   1.380388e-02
   1.800000e+02   1.355192e-02
   1.810000e+02   1.342551e-02
   1.820000e+02   1.342172e-02
   1.830000e+02   1.352372e-02
   1.840000e+02   1.370176e-02
   1.850000e+02   1.391584e-02
   1.860000e+02   1.412041e-02
   1.870000e+02   1.427106e-02
   1.880000e+02   1.433202e-02
   1.890000e+02   1.428324e-02
   1.900000e+02   1.412479e-02
   1.910000e+02   1.387748e-02
   1.920000e+02   1.357871e-02
   1.930000e+02   1.327461e-02
   1.940000e+02   1.300991e-02
   1.950000e+02   1.281818e-02
   1.960000e+02   1.271471e-02
   1.970000e+02   1.269356e-02
   1.980000e+02   1.272923e-02
   1.990000e+02   1.278216e-02
   2.000000e+02   1.280651e-02
   2.010000e+02   1.275826e-02
   2.020000e+02   1.260206e-02
   2.030000e+02   1.231568e-02
   2.040000e+02   1.189170e-02
   2.050000e+02   1.133670e-02
   2.060000e+02   1.066851e-02
   2.070000e+02   9.912621e-03
   2.080000e+02   9.098269e-03
   2.090000e+02   8.255205e-03
   2.100000e+02   7.411297e-03
   2.110000e+02   6.591170e-03
   2.120000e+02   5.815678e-03
   2.130000e+02   5.101857e-03
   2.140000e+02   4.463014e-03
   2.150000e+02   3.908665e-03
   2.160000e+02   3.444229e-03
   2.170000e+02   3.070573e-03
   2.180000e+02   2.783623e-03
   2.190000e+02   2.574342e-03
   2.200000e+02   2.429297e-03
   2.210000e+02   2.331961e-03
   2.220000e+02   2.264675e-03
   2.230000e+02   2.211036e-03
   2.240000e+02   2.158261e-03
   2.250000e+02   2.099018e-03
   2.260000e+02   2.032248e-03
   2.270000e+02   1.962691e-03
   2.280000e+02   1.899167e-03
   2.290000e+02   1.851959e-03
   2.300000e+02   1.829963e-03
   2.310000e+02   1.838273e-03
   2.320000e+02   1.876824e-03
   2.330000e+02   1.940340e-03
   2.340000e+02   2.019569e-03
   2.350000e+02   2.103389e-03
   2.360000e+02   2.181261e-03
   2.370000e+02   2.245429e-03
   2.380000e+02   2.292397e-03
   2.390000e+02   2.323395e-03
   2.400000e+02   2.343770e-03
   2.410000e+02   2.361431e-03
   2.420000e+02   2.384676e-03
   2.430000e+02   2.419857e-03
   2.440000e+02   2.469418e-03
   2.450000e+02   2.530828e-03
   2.460000e+02   2.596799e-03
   2.470000e+02   2.656887e-03
   2.480000e+02   2.700229e-03
   2.490000e+02   2.718779e-03
   2.500000e+02   2.710185e-03
   2.510000e+02   2.679419e-03
   2.520000e+02   2.638543e-03
   2.530000e+02   2.604490e-03
   2.540000e+02   2.595271e-03
   2.550000e+02   2.625560e-03
   2.560000e+02   2.702772e-03
   2.570000e+02   2.824724e-03
   2.580000e+02   2.979537e-03
   2.590000e+02   3.147869e-03
   2.600000e+02   3.306968e-03
   2.610000e+02   3.435560e-03
   2.620000e+02   3.518379e-03
   2.630000e+02   3.549277e-03
   2.640000e+02   3.532251e-03
   2.650000e+02   3.480223e-03
   2.660000e+02   3.412039e-03
   2.670000e+02   3.348475e-03
   2.680000e+02   3.308222e-03
   2.690000e+02   3.304717e-03
   2.700000e+02   3.344347e-03
   2.710000e+02   3.426184e-03
   2.720000e+02   3.543052e-03
   2.730000e+02   3.683492e-03
   2.740000e+02   3.834130e-03
   2.750000e+02   3.981951e-03
   2.760000e+02   4.116133e-03
   2.770000e+02   4.229230e-03
   2.780000e+02   4.317614e-03
   2.790000e+02   4.381268e-03
   2.800000e+02   4.423113e-03
   2.810000e+02   4.448116e-03
   2.820000e+02   4.462446e-03
   2.830000e+02   4.472827e-03
   2.840000e+02   4.486120e-03
   2.850000e+02   4.509013e-03
   2.860000e+02   4.547631e-03
   2.870000e+02   4.606912e-03
   2.880000e+02   4.689768e-03
   2.890000e+02   4.796210e-03
   2.900000e+02   4.922805e-03
   2.910000e+02   5.062794e-03
   2.920000e+02   5.207101e-03
   2.930000e+02   5.346105e-03
   2.940000e+02   5.471809e-03
   2.950000e+02   5.579759e-03
   2.960000e+02   5.670134e-03
   2.970000e+02   5.747571e-03
   2.980000e+02   5.819746e-03
   2.990000e+02   5.895086e-03
   3.000000e+02   5.980323e-03
   3.010000e+02   6.078661e-03
   3.020000e+02   6.189113e-03
   3.030000e+02   6.307236e-03
   3.040000e+02   6.427009e-03
   3.050000e+02   6.543250e-03
   3.060000e+02   6.653805e-03
   3.070000e+02   6.760810e-03
   3.080000e+02   6.870602e-03
   3.090000e+02   6.992265e-03
   3.100000e+02   7.135170e-03
   3.110000e+02   7.306194e-03
   3.120000e+02   7.507371e-03
   3.130000e+02   7.734688e-03
   3.140000e+02   7.978426e-03
   3.150000e+02   8.225103e-03
   3.160000e+02   8.460664e-03
   3.170000e+02   8.674185e-03
   3.180000e+02   8.861212e-03
   3.190000e+02   9.025827e-03
   3.200000e+02   9.180802e-03
   3.210000e+02   9.345636e-03
   3.220000e+02   9.542796e-03
   3.230000e+02   9.792977e-03
   3.240000e+02   1.011049e-02
   3.250000e+02   1.049988e-02
   3.260000e+02   1.095462e-02
   3.270000e+02   1.145804e-02
   3.280000e+02   1.198619e-02
   3.290000e+02   1.251181e-02
   3.300000e+02   1.300823e-02
   3.310000e+02   1.345230e-02
   3.320000e+02   1.382581e-02
   3.330000e+02   1.411546e-02
   3.340000e+02   1.431170e-02
   3.350000e+02   1.440740e-02
   3.360000e+02   1.439688e-02
   3.370000e+02   1.427594e-02
   3.380000e+02   1.404275e-02
   3.390000e+02   1.369950e-02
   3.400000e+02   1.325400e-02
   3.410000e+02   1.272082e-02
   3.420000e+02   1.212116e-02
   3.430000e+02   1.148161e-02
   3.440000e+02   1.083147e-02
   3.450000e+02   1.019945e-02
   3.460000e+02   9.610073e-03
   3.470000e+02   9.080628e-03
   3.480000e+02   8.619374e-03
   3.490000e+02   8.225309e-03
   3.500000e+02   7.889683e-03
   3.510000e+02   7.598928e-03
   3.520000e+02   7.338367e-03
   3.530000e+02   7.095851e-03
   3.540000e+02   6.864476e-03
   3.550000e+02   6.643750e-03
   3.560000e+02   6.439020e-03
   3.570000e+02   6.259428e-03
   3.580000e+02   6.115072e-03
   3.590000e+02   6.014256e-03
   3.600000e+02   5.961642e-03
   3.610000e+02   5.957794e-03
   3.620000e+02   6.000139e-03
   3.630000e+02   6.084894e-03
   3.640000e+02   6.209177e-03
   3.650000e+02   6.372445e-03
   3.660000e+02   6.576587e-03
   3.670000e+02   6.824453e-03
   3.680000e+02   7.117093e-03
   3.690000e+02   7.450509e-03
   3.700000e+02   7.812966e-03
   3.710000e+02   8.183966e-03
   3.720000e+02   8.535597e-03
   3.730000e+02   8.836427e-03
   3.740000e+02   9.057360e-03
   3.750000e+02   9.178224e-03
   3.760000e+02   9.193510e-03
   3.770000e+02   9.115701e-03
   3.780000e+02   8.975124e-03
   3.790000e+02   8.816021e-03
   3.800000e+02   8.689427e-03
   3.810000e+02   8.644148e-03
   3.820000e+02   8.717571e-03
   3.830000e+02   8.928033e-03
   3.840000e+02   9.270224e-03
   3.850000e+02   9.714525e-03
   3.860000e+02   1.021059e-02
   3.870000e+02   1.069478e-02
   3.880000e+02   1.110036e-02
   3.890000e+02   1.136891e-02
   3.900000e+02   1.146093e-02
   3.910000e+02   1.136365e-02
   3.920000e+02   1.109451e-02
   3.930000e+02   1.069934e-02
   3.940000e+02   1.024555e-02
   3.950000e+02   9.811291e-03
   3.960000e+02   9.472621e-03
   3.970000e+02   9.290820e-03
   3.980000e+02   9.302056e-03
   3.990000e+02   9.511151e-03
   4.000000e+02   9.890497e-03
   4.010000e+02   1.038435e-02
   4.020000e+02   1.091786e-02
   4.030000e+02   1.140935e-02
   4.040000e+02   1.178378e-02
   4.050000e+02   1.198507e-02
   4.060000e+02   1.198495e-02
   4.070000e+02   1.178699e-02
   4.080000e+02   1.142501e-02
   4.090000e+02   1.095637e-02
   4.100000e+02   1.045165e-02
   4.110000e+02   9.982475e-03
   4.120000e+02   9.609754e-03
   4.130000e+02   9.374325e-03
   4.140000e+02   9.291334e-03
   4.150000e+02   9.349217e-03
   4.160000e+02   9.513226e-03
   4.170000e+02   9.732751e-03
   4.180000e+02   9.950982e-03
   4.190000e+02   1.011507e-02
   4.200000e+02   1.018489e-02
   4.210000e+02   1.013895e-02
   4.220000e+02   9.976478e-03
   4.230000e+02   9.715874e-03
   4.240000e+02   9.390145e-03
   4.250000e+02   9.040529e-03
   4.260000e+02   8.709572e-03
   4.270000e+02   8.434716e-03
   4.280000e+02   8.243121e-03
   4.290000e+02   8.148198e-03
   4.300000e+02   8.148113e-03
   4.310000e+02   8.226429e-03
   4.320000e+02   8.354887e-03
   4.330000e+02   8.498076e-03
   4.340000e+02   8.619388e-03
   4.350000e+02   8.687316e-03
   4.360000e+02   8.680934e-03
   4.370000e+02   8.593483e-03
   4.380000e+02   8.433330e-03
   4.390000e+02   8.222131e-03
   4.400000e+02   7.990590e-03
   4.410000e+02   7.772742e-03
   4.420000e+02   7.599921e-03
   4.430000e+02   7.495680e-03
   4.440000e+02   7.472746e-03
   4.450000e+02   7.532823e-03
   4.460000e+02   7.669627e-03
   4.470000e+02   7.874963e-03
   4.480000e+02   8.147007e-03
   4.490000e+02   8.499264e-03
   4.500000e+02   8.968117e-03
   4.510000e+02   9.616646e-03
   4.520000e+02   1.053265e-02
   4.530000e+02   1.181971e-02
   4.540000e+02   1.358159e-02
   4.550000e+02   1.590195e-02
   4.560000e+02   1.882307e-02
   4.570000e+02   2.232820e-02
   4.580000e+02   2.633236e-02
   4.590000e+02   3.068465e-02
   4.600000e+02   3.518334e-02
   4.610000e+02   3.960137e-02
   4.620000e+02   4.371765e-02
   4.630000e+02   4.734777e-02
   4.640000e+02   5.036751e-02
   4.650000e+02   5.272496e-02
   4.660000e+02   5.443924e-02
   4.670000e+02   5.558767e-02
   4.680000e+02   5.628561e-02
   4.690000e+02   5.666409e-02
   4.700000e+02   5.685038e-02
   4.710000e+02   5.695460e-02
   4.720000e+02   5.706346e-02
   4.730000e+02   5.723998e-02
   4.740000e+02   5.752686e-02
   4.750000e+02   5.795061e-02
   4.760000e+02   5.852406e-02
   4.770000e+02   5.924597e-02
   4.780000e+02   6.009756e-02
   4.790000e+02   6.103722e-02
   4.800000e+02   6.199522e-02
   4.810000e+02   6.287116e-02
   4.820000e+02   6.353627e-02
   4.830000e+02   6.384219e-02
   4.840000e+02   6.363651e-02
   4.850000e+02   6.278329e-02
   4.860000e+02   6.118527e-02
   4.870000e+02   5.880323e-02
   4.880000e+02   5.566801e-02
   4.890000e+02   5.188161e-02
   4.900000e+02   4.760656e-02
   4.910000e+02   4.304527e-02
   4.920000e+02   3.841332e-02
   4.930000e+02   3.391245e-02
   4.940000e+02   2.970817e-02
   4.950000e+02   2.591573e-02
   4.960000e+02   2.259592e-02
   4.970000e+02   1.975944e-02
   4.980000e+02   1.737744e-02
   4.990000e+02   1.539490e-02
   5.000000e+02   1.374373e-02
   5.010000e+02   1.235363e-02
   5.020000e+02   1.115970e-02
   5.030000e+02   1.010680e-02
   5.040000e+02   9.151246e-03
   5.050000e+02   8.260779e-03
   5.060000e+02   7.413584e-03
   5.070000e+02   6.596911e-03
   5.080000e+02   5.805623e-03
   5.090000e+02   5.040728e-03
   5.100000e+02   4.307879e-03
   5.110000e+02   3.615754e-03
   5.120000e+02   2.974352e-03
   5.130000e+02   2.393288e-03
   5.140000e+02   1.880265e-03
   5.150000e+02   1.439929e-03
   5.160000e+02   1.073254e-03
   5.170000e+02   7.775111e-04
   5.180000e+02   5.467870e-04
   5.190000e+02   3.728702e-04
   5.200000e+02   2.463189e-04
   5.210000e+02   1.574918e-04
   5.220000e+02   9.738676e-05
   5.230000e+02   5.820010e-05
   5.240000e+02   3.359406e-05
   5.250000e+02   1.871885e-05
   5.260000e+02   1.006382e-05
   5.270000e+02   5.218267e-06
   5.280000e+02   2.608565e-06
   5.290000e+02   1.256725e-06
   5.300000e+02   5.833226e-07
   5.310000e+02   2.607883e-07
   5.320000e+02   1.122721e-07
   5.330000e+02   4.653334e-08
   5.340000e+02   1.856437e-08
   5.350000e+02   7.127585e-09
   5.360000e+02   2.633189e-09
   5.370000e+02   9.359164e-10
   5.380000e+02   3.200009e-10
   5.390000e+02   1.052383e-10
   5.400000e+02   3.328584e-11
   5.410000e+02   1.012433e-11
   5.420000e+02   2.961127e-12
   5.430000e+02   8.327165e-13
   5.440000e+02   2.251414e-13
   5.450000e+02   5.851984e-14
   5.460000e+02   1.462225e-14
   5.470000e+02   3.512080e-15
   5.480000e+02   8.108332e-16
   5.490000e+02   1.799264e-16
