# Mean Square Displacements at a function of temperature.
# Temperature [K], <(u_{1}^{x})^{2}>, <(u_{1}^{y})^{2}>, <(u_{1}^{z})^{2}>, .... [Angstrom^2]
              0     0.00186148     0.00186148     0.00186148     0.00162707     0.00162707     0.00162707     0.00221026     0.00501585     0.00501585     0.00501585     0.00221026     0.00501585     0.00501585     0.00501585     0.00221026
             50      0.0021531      0.0021531      0.0021531     0.00178694     0.00178694     0.00178694     0.00225194     0.00622616     0.00622616     0.00622616     0.00225194     0.00622616     0.00622616     0.00622616     0.00225194
            100     0.00316872     0.00316872     0.00316872     0.00228537     0.00228537     0.00228537     0.00240379     0.00855204     0.00855204     0.00855204     0.00240379     0.00855204     0.00855204     0.00855204     0.00240379
            150     0.00439537     0.00439537     0.00439537     0.00292619     0.00292619     0.00292619     0.00262912      0.0113034      0.0113034      0.0113034     0.00262912      0.0113034      0.0113034      0.0113034     0.00262912
            200     0.00568797     0.00568797     0.00568797     0.00363287     0.00363287     0.00363287     0.00291144      0.0142589      0.0142589      0.0142589     0.00291144      0.0142589      0.0142589      0.0142589     0.00291144
            250     0.00700877     0.00700877     0.00700877     0.00437454     0.00437454     0.00437454     0.00323842      0.0173223      0.0173223      0.0173223     0.00323842      0.0173223      0.0173223      0.0173223     0.00323842
            300     0.00834409     0.00834409     0.00834409     0.00513661     0.00513661     0.00513661     0.00359867      0.0204481      0.0204481      0.0204481     0.00359867      0.0204481      0.0204481      0.0204481     0.00359867
            350     0.00968784     0.00968784     0.00968784     0.00591142     0.00591142     0.00591142     0.00398327      0.0236127      0.0236127      0.0236127     0.00398327      0.0236127      0.0236127      0.0236127     0.00398327
            400      0.0110369      0.0110369      0.0110369     0.00669467     0.00669467     0.00669467     0.00438579      0.0268028      0.0268028      0.0268028     0.00438579      0.0268028      0.0268028      0.0268028     0.00438579
            450      0.0123896      0.0123896      0.0123896     0.00748378     0.00748378     0.00748378     0.00480166      0.0300105      0.0300105      0.0300105     0.00480166      0.0300105      0.0300105      0.0300105     0.00480166
            500      0.0137447      0.0137447      0.0137447     0.00827708     0.00827708     0.00827708     0.00522765      0.0332309      0.0332309      0.0332309     0.00522765      0.0332309      0.0332309      0.0332309     0.00522765
            550      0.0151017      0.0151017      0.0151017      0.0090735      0.0090735      0.0090735     0.00566144      0.0364606      0.0364606      0.0364606     0.00566144      0.0364606      0.0364606      0.0364606     0.00566144
            600      0.0164601      0.0164601      0.0164601      0.0098723      0.0098723      0.0098723     0.00610136      0.0396974      0.0396974      0.0396974     0.00610136      0.0396974      0.0396974      0.0396974     0.00610136
            650      0.0178195      0.0178195      0.0178195      0.0106729      0.0106729      0.0106729     0.00654615      0.0429398      0.0429398      0.0429398     0.00654615      0.0429398      0.0429398      0.0429398     0.00654615
            700      0.0191798      0.0191798      0.0191798       0.011475       0.011475       0.011475     0.00699487      0.0461866      0.0461866      0.0461866     0.00699487      0.0461866      0.0461866      0.0461866     0.00699487
            750      0.0205407      0.0205407      0.0205407      0.0122783      0.0122783      0.0122783     0.00744681      0.0494368      0.0494368      0.0494368     0.00744681      0.0494368      0.0494368      0.0494368     0.00744681
            800      0.0219022      0.0219022      0.0219022      0.0130826      0.0130826      0.0130826      0.0079014        0.05269        0.05269        0.05269      0.0079014        0.05269        0.05269        0.05269      0.0079014
            850      0.0232641      0.0232641      0.0232641      0.0138876      0.0138876      0.0138876     0.00835822      0.0559455      0.0559455      0.0559455     0.00835822      0.0559455      0.0559455      0.0559455     0.00835822
            900      0.0246264      0.0246264      0.0246264      0.0146933      0.0146933      0.0146933     0.00881691       0.059203       0.059203       0.059203     0.00881691       0.059203       0.059203       0.059203     0.00881691
            950       0.025989       0.025989       0.025989      0.0154996      0.0154996      0.0154996      0.0092772      0.0624622      0.0624622      0.0624622      0.0092772      0.0624622      0.0624622      0.0624622      0.0092772
           1000      0.0273519      0.0273519      0.0273519      0.0163063      0.0163063      0.0163063     0.00973885      0.0657228      0.0657228      0.0657228     0.00973885      0.0657228      0.0657228      0.0657228     0.00973885
